,Wavelength,red,green,blue
0,300,1.249,0.773,0.838
1,310,1.313,0.584,0.749
2,320,1.191,0.453,0.576
3,330,0.762,0.346,0.323
4,340,0.449,0.353,0.205
5,350,0.365,0.432,0.18
6,360,0.379,0.565,0.198
7,370,0.432,0.739,0.236
8,380,0.507,0.946,0.308
9,390,0.593,1.148,0.373
10,400,0.66,1.323,0.443
11,410,0.705,1.458,0.497
12,420,0.747,1.418,0.355
13,430,0.781,1.335,0.233
14,440,0.848,1.252,0.192
15,450,1.027,1.117,0.205
16,460,1.328,0.906,0.243
17,470,1.671,0.698,0.292
18,480,2.091,0.471,0.347
19,490,2.482,0.256,0.4
20,500,2.621,0.142,0.437
21,510,2.628,0.113,0.457
22,520,2.717,0.125,0.472
23,530,2.585,0.154,0.491
24,540,1.919,0.197,0.504
25,550,1.242,0.259,0.518
26,560,0.706,0.363,0.585
27,570,0.369,0.514,0.745
28,580,0.194,0.674,0.948
29,590,0.111,0.82,1.147
30,600,0.077,1.026,1.432
31,610,0.063,1.434,1.997
32,620,0.058,2.0,2.754
33,630,0.055,2.259,3.051
34,640,0.054,1.81,2.501
35,650,0.053,1.046,1.453
36,660,0.053,0.496,0.685
37,670,0.053,0.23,0.307
38,680,0.053,0.121,0.153
39,690,0.052,0.08,0.093
40,700,0.053,0.063,0.07
41,710,0.054,0.058,0.062
42,720,0.056,0.057,0.06
43,730,0.059,0.058,0.061
44,740,0.062,0.061,0.063
